#2-THETA,#INTENSITY
3,4536
3.049,4619
3.098,4472
3.147,4285
3.196,4360
3.245,3444
3.294,4090
3.343,3660
3.392,3552
3.441,3837
3.49,3088
3.539,3357
3.588,2978
3.637,3092
3.686,3303
3.735,2657
3.784,2688
3.833,2684
3.882,2750
3.931,2928
3.98,2283
4.029,2699
4.078,2373
4.127,2438
4.176,2596
4.225,2175
4.274,2393
4.323,2051
4.372,2154
4.421,2271
4.47,1974
4.519,1995
4.568,2028
4.617,1890
4.666,1978
4.715,1771
4.764,1785
4.813,1818
4.862,1748
4.911,1802
4.96,1812
5.009,1714
5.058,1724
5.107,1721
5.156,1675
5.205,1658
5.254,1633
5.303,1635
5.352,1540
5.401,1639
5.45,1597
5.499,1566
5.548,1516
5.597,1525
5.646,1460
5.695,1459
5.744,1431
5.793,1441
5.842,1425
5.891,1354
5.94,1341
5.989,1325
6.038,1317
6.087,1378
6.136,1320
6.185,1336
6.234,1299
6.283,1304
6.332,1268
6.381,1302
6.43,1244
6.479,1275
6.528,1300
6.577,1184
6.626,1240
6.675,1174
6.724,1303
6.773,1163
6.822,1122
6.871,1164
6.92,1121
6.969,1177
7.018,1115
7.067,1144
7.116,1111
7.165,1179
7.214,1173
7.263,1144
7.312,1063
7.361,1099
7.41,1137
7.459,1032
7.508,1082
7.557,1018
7.606,1096
7.655,1125
7.704,1075
7.753,1134
7.802,1057
7.851,1109
7.9,1031
7.949,1070
7.998,1038
8.047,1080
8.096,1110
8.145,1089
8.194,1035
8.243,1051
8.292,1065
8.341,1056
8.39,972
8.439,1000
8.488,1008
8.537,1005
8.586,1035
8.635,1044
8.684,1031
8.733,1022
8.782,990
8.831,1025
8.88,1019
8.929,1011
8.978,1027
9.027,1018
9.076,1018
9.125,1024
9.174,1029
9.223,1021
9.272,1019
9.321,986
9.37,979
9.419,1005
9.468,998
9.517,996
9.566,982
9.615,1027
9.664,1027
9.713,1056
9.762,1002
9.811,1029
9.86,1050
9.909,981
9.958,1009
10.007,1037
10.056,1032
10.105,1026
10.154,1056
10.203,1054
10.252,1076
10.301,991
10.35,1060
10.399,1021
10.448,1000
10.497,1046
10.546,990
10.595,988
10.644,956
10.693,947
10.742,978
10.791,900
10.84,895
10.889,964
10.938,1032
10.987,954
11.036,877
11.085,939
11.134,845
11.183,897
11.232,891
11.281,902
11.33,859
11.379,874
11.428,883
11.477,875
11.526,862
11.575,872
11.624,873
11.673,834
11.722,871
11.771,821
11.82,826
11.869,811
11.918,831
11.967,820
12.016,818
12.065,823
12.114,824
12.163,847
12.212,835
12.261,857
12.31,797
12.359,833
12.408,847
12.457,866
12.506,892
12.555,856
12.604,902
12.653,842
12.702,869
12.751,859
12.8,862
12.849,859
12.898,878
12.947,833
12.996,838
13.045,801
13.094,889
13.143,907
13.192,831
13.241,800
13.29,863
13.339,851
13.388,820
13.437,888
13.486,862
13.535,874
13.584,842
13.633,837
13.682,891
13.731,924
13.78,860
13.829,877
13.878,871
13.927,900
13.976,862
14.025,830
14.074,832
14.123,816
14.172,864
14.221,883
14.27,849
14.319,843
14.368,860
14.417,900
14.466,860
14.515,831
14.564,862
14.613,896
14.662,854
14.711,868
14.76,814
14.809,856
14.858,874
14.907,853
14.956,927
15.005,892
15.054,869
15.103,870
15.152,884
15.201,848
15.25,842
15.299,882
15.348,900
15.397,903
15.446,890
15.495,825
15.544,886
15.593,937
15.642,895
15.691,964
15.74,992
15.789,1083
15.838,1136
15.887,1214
15.936,1269
15.985,1260
16.034,1220
16.083,1132
16.132,1108
16.181,1062
16.23,1009
16.279,981
16.328,946
16.377,982
16.426,942
16.475,924
16.524,897
16.573,895
16.622,963
16.671,916
16.72,924
16.769,980
16.818,978
16.867,926
16.916,936
16.965,966
17.014,981
17.063,999
17.112,978
17.161,988
17.21,994
17.259,992
17.308,1053
17.357,1044
17.406,1101
17.455,1104
17.504,1114
17.553,1087
17.602,1127
17.651,1133
17.7,1103
17.749,1111
17.798,1034
17.847,1023
17.896,1053
17.945,1049
17.994,1082
18.043,1092
18.092,1111
18.141,1164
18.19,1205
18.239,1183
18.288,1178
18.337,1188
18.386,1128
18.435,1134
18.484,1205
18.533,1171
18.582,1223
18.631,1207
18.68,1217
18.729,1184
18.778,1272
18.827,1233
18.876,1239
18.925,1224
18.974,1204
19.023,1205
19.072,1225
19.121,1196
19.17,1218
19.219,1182
19.268,1179
19.317,1195
19.366,1171
19.415,1160
19.464,1167
19.513,1152
19.562,1193
19.611,1146
19.66,1120
19.709,1149
19.758,1154
19.807,1142
19.856,1156
19.905,1192
19.954,1164
20.003,1182
20.052,1199
20.101,1195
20.15,1231
20.199,1310
20.248,1346
20.297,1309
20.346,1342
20.395,1308
20.444,1269
20.493,1249
20.542,1181
20.591,1192
20.64,1152
20.689,1141
20.738,1200
20.787,1183
20.836,1190
20.885,1174
20.934,1142
20.983,1179
21.032,1177
21.081,1182
21.13,1202
21.179,1236
21.228,1275
21.277,1280
21.326,1297
21.375,1277
21.424,1226
21.473,1253
21.522,1202
21.571,1212
21.62,1207
21.669,1228
21.718,1206
21.767,1207
21.816,1208
21.865,1292
21.914,1325
21.963,1328
22.012,1348
22.061,1324
22.11,1377
22.159,1291
22.208,1299
22.257,1339
22.306,1315
22.355,1367
22.404,1378
22.453,1414
22.502,1412
22.551,1394
22.6,1341
22.649,1405
22.698,1361
22.747,1379
22.796,1412
22.845,1429
22.894,1427
22.943,1400
22.992,1470
23.041,1507
23.09,1515
23.139,1499
23.188,1525
23.237,1500
23.286,1546
23.335,1490
23.384,1479
23.433,1416
23.482,1464
23.531,1409
23.58,1407
23.629,1444
23.678,1434
23.727,1506
23.776,1460
23.825,1510
23.874,1461
23.923,1525
23.972,1469
24.021,1515
24.07,1523
24.119,1530
24.168,1579
24.217,1619
24.266,1689
24.315,1744
24.364,1713
24.413,1739
24.462,1705
24.511,1706
24.56,1609
24.609,1630
24.658,1552
24.707,1634
24.756,1552
24.805,1589
24.854,1555
24.903,1602
24.952,1575
25.001,1529
25.05,1555
25.099,1593
25.148,1620
25.197,1676
25.246,1715
25.295,1797
25.344,2134
25.393,2595
25.442,3091
25.491,3544
25.54,3774
25.589,3713
25.638,3321
25.687,2747
25.736,2263
25.785,1838
25.834,1649
25.883,1582
25.932,1523
25.981,1505
26.03,1577
26.079,1548
26.128,1524
26.177,1558
26.226,1541
26.275,1544
26.324,1561
26.373,1611
26.422,1712
26.471,1748
26.52,1789
26.569,1837
26.618,1787
26.667,1778
26.716,1648
26.765,1597
26.814,1534
26.863,1517
26.912,1460
26.961,1491
27.01,1497
27.059,1492
27.108,1554
27.157,1612
27.206,1806
27.255,1835
27.304,1997
27.353,2086
27.402,2351
27.451,2584
27.5,2771
27.549,2868
27.598,2774
27.647,2569
27.696,2270
27.745,1993
27.794,1859
27.843,1786
27.892,1816
27.941,1945
27.99,2113
28.039,2305
28.088,2424
28.137,2408
28.186,2289
28.235,2187
28.284,2232
28.333,2226
28.382,2336
28.431,2299
28.48,2220
28.529,2150
28.578,1983
28.627,1777
28.676,1599
28.725,1497
28.774,1447
28.823,1453
28.872,1381
28.921,1401
28.97,1453
29.019,1455
29.068,1496
29.117,1497
29.166,1521
29.215,1545
29.264,1549
29.313,1506
29.362,1547
29.411,1511
29.46,1562
29.509,1562
29.558,1583
29.607,1575
29.656,1703
29.705,1711
29.754,1737
29.803,1792
29.852,1766
29.901,1794
29.95,1701
29.999,1701
30.048,1626
30.097,1633
30.146,1640
30.195,1593
30.244,1571
30.293,1574
30.342,1559
30.391,1484
30.44,1496
30.489,1519
30.538,1540
30.587,1609
30.636,1704
30.685,1791
30.734,1903
30.783,1901
30.832,1981
30.881,1982
30.93,2026
30.979,2056
31.028,2079
31.077,2084
31.126,2092
31.175,2095
31.224,1997
31.273,1998
31.322,1888
31.371,1786
31.42,1803
31.469,1719
31.518,1653
31.567,1667
31.616,1727
31.665,1693
31.714,1698
31.763,1775
31.812,1824
31.861,1867
31.91,1999
31.959,2272
32.008,2551
32.057,2957
32.106,3465
32.155,4071
32.204,4776
32.253,5193
32.302,5467
32.351,5458
32.4,5180
32.449,4915
32.498,4668
32.547,4496
32.596,4307
32.645,3947
32.694,3487
32.743,2951
32.792,2430
32.841,2076
32.89,1869
32.939,1842
32.988,1964
33.037,2034
33.086,2127
33.135,2112
33.184,1968
33.233,1842
33.282,1691
33.331,1562
33.38,1495
33.429,1468
33.478,1445
33.527,1425
33.576,1438
33.625,1454
33.674,1428
33.723,1530
33.772,1506
33.821,1528
33.87,1530
33.919,1487
33.968,1428
34.017,1430
34.066,1337
34.115,1346
34.164,1338
34.213,1421
34.262,1472
34.311,1633
34.36,1802
34.409,2142
34.458,2434
34.507,2733
34.556,3033
34.605,3120
34.654,3127
34.703,3001
34.752,2854
34.801,2487
34.85,2168
34.899,2028
34.948,1957
34.997,1981
35.046,2065
35.095,2205
35.144,2324
35.193,2465
35.242,2600
35.291,2523
35.34,2420
35.389,2336
35.438,2261
35.487,2173
35.536,2055
35.585,2039
35.634,2023
35.683,2046
35.732,2129
35.781,2118
35.83,2180
35.879,2178
35.928,2184
35.977,2129
36.026,2033
36.075,1900
36.124,1770
36.173,1650
36.222,1508
36.271,1425
36.32,1358
36.369,1326
36.418,1327
36.467,1338
36.516,1440
36.565,1572
36.614,1568
36.663,1663
36.712,1690
36.761,1695
36.81,1597
36.859,1578
36.908,1560
36.957,1583
37.006,1538
37.055,1457
37.104,1434
37.153,1384
37.202,1371
37.251,1334
37.3,1266
37.349,1320
37.398,1302
37.447,1313
37.496,1338
37.545,1366
37.594,1351
37.643,1349
37.692,1323
37.741,1320
37.79,1291
37.839,1305
37.888,1364
37.937,1344
37.986,1389
38.035,1368
38.084,1436
38.133,1438
38.182,1499
38.231,1523
38.28,1514
38.329,1551
38.378,1757
38.427,1904
38.476,2702
38.525,2796
38.574,3146
38.623,3572
38.672,3572
38.721,3293
38.77,2968
38.819,2442
38.868,1985
38.917,1633
38.966,1362
39.015,1304
39.064,1249
39.113,1215
39.162,1213
39.211,1277
39.26,1289
39.309,1336
39.358,1340
39.407,1287
39.456,1280
39.505,1221
39.554,1202
39.603,1185
39.652,1189
39.701,1186
39.75,1203
39.799,1231
39.848,1209
39.897,1205
39.946,1230
39.995,1212
40.044,1210
40.093,1228
40.142,1262
40.191,1239
40.24,1214
40.289,1211
40.338,1302
40.387,1326
40.436,1423
40.485,1482
40.534,1607
40.583,1723
40.632,1782
40.681,1788
40.73,1877
40.779,1808
40.828,1769
40.877,1755
40.926,1706
40.975,1760
41.024,1775
41.073,1805
41.122,1949
41.171,2144
41.22,2410
41.269,2823
41.318,3296
41.367,3781
41.416,4405
41.465,4796
41.514,5157
41.563,5288
41.612,5064
41.661,4672
41.71,3926
41.759,3480
41.808,2894
41.857,2354
41.906,2102
41.955,1899
42.004,1699
42.053,1680
42.102,1573
42.151,1586
42.2,1567
42.249,1563
42.298,1555
42.347,1553
42.396,1502
42.445,1490
42.494,1490
42.543,1465
42.592,1447
42.641,1454
42.69,1478
42.739,1455
42.788,1466
42.837,1495
42.886,1432
42.935,1389
42.984,1365
43.033,1293
43.082,1259
43.131,1294
43.18,1320
43.229,1310
43.278,1329
43.327,1313
43.376,1359
43.425,1349
43.474,1259
43.523,1216
43.572,1190
43.621,1192
43.67,1201
43.719,1161
43.768,1126
43.817,1111
43.866,1145
43.915,1154
43.964,1177
44.013,1182
44.062,1171
44.111,1183
44.16,1165
44.209,1220
44.258,1150
44.307,1148
44.356,1056
44.405,1051
44.454,1057
44.503,1092
44.552,1045
44.601,1098
44.65,1088
44.699,1073
44.748,1051
44.797,1078
44.846,1057
44.895,1025
44.944,1026
44.993,1007
45.042,1074
45.091,1061
45.14,1045
45.189,1079
45.238,1101
45.287,1129
45.336,1093
45.385,1112
45.434,1088
45.483,1090
45.532,1103
45.581,1188
45.63,1229
45.679,1242
45.728,1227
45.777,1277
45.826,1306
45.875,1348
45.924,1386
45.973,1323
46.022,1368
46.071,1392
46.12,1364
46.169,1283
46.218,1249
46.267,1213
46.316,1202
46.365,1196
46.414,1155
46.463,1181
46.512,1170
46.561,1142
46.61,1107
46.659,1121
46.708,1090
46.757,1076
46.806,1131
46.855,1067
46.904,1064
46.953,1101
47.002,1095
47.051,1093
47.1,1105
47.149,1106
47.198,1167
47.247,1162
47.296,1211
47.345,1234
47.394,1275
47.443,1323
47.492,1363
47.541,1390
47.59,1522
47.639,1625
47.688,1732
47.737,1932
47.786,1995
47.835,1947
47.884,1908
47.933,1782
47.982,1573
48.031,1448
48.08,1347
48.129,1213
48.178,1174
48.227,1137
48.276,1127
48.325,1120
48.374,1104
48.423,1154
48.472,1156
48.521,1146
48.57,1190
48.619,1176
48.668,1160
48.717,1176
48.766,1173
48.815,1210
48.864,1174
48.913,1148
48.962,1217
49.011,1201
49.06,1203
49.109,1247
49.158,1282
49.207,1375
49.256,1432
49.305,1535
49.354,1643
49.403,1686
49.452,1623
49.501,1622
49.55,1662
49.599,1560
49.648,1581
49.697,1566
49.746,1525
49.795,1530
49.844,1544
49.893,1453
49.942,1488
49.991,1434
50.04,1331
50.089,1285
50.138,1343
50.187,1325
50.236,1356
50.285,1375
50.334,1372
50.383,1369
50.432,1385
50.481,1385
50.53,1412
50.579,1390
50.628,1343
50.677,1326
50.726,1217
50.775,1246
50.824,1190
50.873,1156
50.922,1089
50.971,1094
51.02,1090
51.069,1033
51.118,1062
51.167,1098
51.216,1063
51.265,1078
51.314,1085
51.363,1083
51.412,1067
51.461,1061
51.51,1048
51.559,1039
51.608,1081
51.657,1089
51.706,1110
51.755,1103
51.804,1083
51.853,1437
51.902,1325
51.951,1327
